ReRa Photor QE measurement
Wavelength [nm]	QE[-]
350	0.247259918321227
360	0.278491685917722
370	0.321747797636271
380	0.397493588545255
390	0.46459261420599
400	0.507484171943124
410	0.541315008870288
420	0.556014945582187
430	0.572987096616607
440	0.590921190727347
450	0.608056514432398
460	0.623201702489808
470	0.637038216280004
480	0.64920990851604
490	0.660950733104265
500	0.664284841463722
510	0.672332017386661
520	0.674226237408654
530	0.676437391927876
540	0.672808956899804
550	0.675355768081909
560	0.674136458382406
570	0.674811616693671
580	0.675567083434968
590	0.677404287955707
600	0.677149974903413
610	0.678723818388192
620	0.679420684439047
630	0.681503817378189
640	0.682239164199572
650	0.683941046944341
660	0.684904741005689
670	0.685310184157896
680	0.686333645536968
690	0.68689567966148
700	0.687842512585837
710	0.688966013473898
720	0.691105174096402
730	0.6866921504314
740	0.685559833609641
750	0.689246867757162
760	0.691559454096765
770	0.6931762646054
780	0.693279148440958
790	0.697713988174039
800	0.702148827907121
810	0.702147922799201
820	0.701312949108163
830	0.698568757833778
840	0.69553397273914
850	0.688767025683107
860	0.665013324957271
870	0.502125905100387
880	0.222511705632667
890	0.0397163054216456
900	0.00703841387251953
910	0.00224584947594088
920	0.00105644545140089
