ReRa Photor QE measurement
Wavelength [nm]	QE[-]
350	0.247364577387539
360	0.2806222008774
370	0.31958705962637
380	0.391956014747254
390	0.463924646828036
400	0.531197065261083
410	0.567356774068704
420	0.602613996238996
430	0.62581016686922
440	0.621210866257654
450	0.629647410901238
460	0.638398344680217
470	0.646249295445048
480	0.657349058302465
490	0.670771324485556
500	0.676664150327268
510	0.683231322016684
520	0.687096631255534
530	0.688971968481727
540	0.688695131860925
550	0.689298597083827
560	0.689347101399774
570	0.688440877513028
580	0.690372517721775
590	0.691007556886369
600	0.690810370238987
610	0.691135088538214
620	0.692464162184516
630	0.693284082032373
640	0.693949831067374
650	0.693393298500479
660	0.692502004309577
670	0.691734172876478
680	0.69159009565679
690	0.692097516290282
700	0.691246886686182
710	0.689395866512548
720	0.688973873972462
730	0.687333349292617
740	0.686706115474288
750	0.686305499048371
760	0.685297210906294
770	0.683084207338948
780	0.680750500109743
790	0.678308307738654
800	0.675866115367565
810	0.673092519387173
820	0.671216553754346
830	0.665483024125504
840	0.658587781332371
850	0.650305550324841
860	0.615421993027228
870	0.483361384599095
880	0.262304675256802
890	0.0944720740728049
900	0.0210541263891273
910	0.00667990034009708
920	0.00252545435716241
