ReRa Photor QE measurement
Wavelength [nm]	QE[-]
350	0.177184883558019
360	0.174353843555219
370	0.174867408603805
380	0.194617279658423
390	0.2305551907356
400	0.275887916003249
410	0.320380017087798
420	0.370528032074138
430	0.399865209450409
440	0.418188144447587
450	0.430084122403783
460	0.442207780412235
470	0.451205821604131
480	0.460767584651004
490	0.470753692909507
500	0.479348375091102
510	0.491080913453001
520	0.501764915926539
530	0.512284399801104
540	0.520628833465768
550	0.528895929921001
560	0.536926706377075
570	0.5444616875799
580	0.552648730906263
590	0.560524720483242
600	0.567966733784082
610	0.576127839151778
620	0.584787368831337
630	0.59436635833908
640	0.604803263147205
650	0.614595876453053
660	0.6248160720784
670	0.636743985047096
680	0.649026624807334
690	0.658353682808624
700	0.666282763877682
710	0.673399159892433
720	0.679472388544253
730	0.684432058558058
740	0.689031610567537
750	0.693866358422804
760	0.697891605342751
770	0.700433879664091
780	0.702686138082246
790	0.706988192604156
800	0.711290247126066
810	0.712071966687061
820	0.711687611093078
830	0.707713974313073
840	0.704448903519877
850	0.697247032263553
860	0.669863833107497
870	0.49966436884361
880	0.215202776167202
890	0.0360050670064856
900	0.00568107064261568
910	0.00110717918094803
920	0.000556971410507244
