ReRa Photor QE measurement
Wavelength [nm]	QE[-]
350	0.234096105214187
360	0.264251376994219
370	0.295216450076798
380	0.365342051644545
390	0.434423845930707
400	0.49713789592518
410	0.528091595366645
420	0.572286119706605
430	0.590491700868199
440	0.591354254867649
450	0.599310758816912
460	0.606791802343497
470	0.617638699961177
480	0.628657124939823
490	0.639555576603811
500	0.650885309863675
510	0.655590526340798
520	0.657187963491542
530	0.660152115425716
540	0.661947050224302
550	0.662756496631702
560	0.662809124731325
570	0.663749699544524
580	0.664254600537904
590	0.665841590615882
600	0.667638326462349
610	0.668458082869944
620	0.670027050439969
630	0.671047660778247
640	0.671941909107206
650	0.672446909947073
660	0.671863549196935
670	0.671797674189213
680	0.671172494446265
690	0.670761605119607
700	0.669438642682718
710	0.666658810562216
720	0.665425272317133
730	0.660435843426153
740	0.663088862290546
750	0.653921165084639
760	0.658524269734606
770	0.649000963469384
780	0.639923890213831
790	0.653080120682936
800	0.66623635115204
810	0.66085828106309
820	0.664274046994743
830	0.641476565754123
840	0.622184622576152
850	0.645373058946577
860	0.608727289566416
870	0.366287382267319
880	0.111107743105078
890	0.027659469370588
900	0.0101605783915608
910	0.00181193882058001
920	0.001532876404093
