ReRa Photor QE measurement
Wavelength [nm]	QE[-]
350	0.21434539333016
360	0.227107132978394
370	0.250988578268054
380	0.302875253663719
390	0.380532500733609
400	0.464394927976174
410	0.525576207937466
420	0.585232900171793
430	0.628565070309495
440	0.652431136902532
450	0.684590052136461
460	0.720325515473294
470	0.757086458743997
480	0.793078052556339
490	0.826766605281117
500	0.852992834710915
510	0.876410844280671
520	0.894299579564848
530	0.909113680848754
540	0.920822936596216
550	0.935316458308744
560	0.94368289882075
570	0.951789741819989
580	0.960032711499901
590	0.967335281622907
600	0.971995864773393
610	0.977060582613315
620	0.981211702882442
630	0.984223686943175
640	0.985877194293683
650	0.987309911001733
660	0.98605208180353
670	0.98440450653436
680	0.982761285852877
690	0.981407441751848
700	0.977229125509858
710	0.972414117166327
720	0.967155026597376
730	0.961733060997765
740	0.956230484308547
750	0.95244705041087
760	0.94569609427453
770	0.9366700734312
780	0.929589891830289
790	0.92290706518472
800	0.916224238539152
810	0.904400446005478
820	0.89203003801928
830	0.873126446060487
840	0.849445656410144
850	0.819258275801645
860	0.751142445483678
870	0.558665698524725
880	0.278226568382229
890	0.093569342970868
900	0.0236824977235551
910	0.00848777733363705
920	0.00396090595994199
